[Version]
1.2.3.4

[Parameters]
a-Polysilicon					;Material Name


;data in wavelength (nm), n, k
[Data]
24.80000  0.99500  0.02350
25.30000  0.99200  0.02420
25.83000  0.99000  0.02500
26.38000  0.98800  0.02580
26.95000  0.98600  0.02670
27.55000  0.98400  0.02750
28.18000  0.98100  0.02850
28.83000  0.97900  0.02940
29.52000  0.97600  0.03040
30.24000  0.97300  0.03140
31.00000  0.97000  0.03260
31.79000  0.96700  0.03370
32.63000  0.96300  0.03500
33.51000  0.95900  0.03640
34.44000  0.95500  0.03790
35.42000  0.95000  0.03950
36.47000  0.94500  0.04130
37.57000  0.93900  0.04330
38.75000  0.93300  0.04550
40.00000  0.92600  0.04800
41.33000  0.91800  0.05080
42.75000  0.90900  0.05410
44.28000  0.89900  0.05790
45.92000  0.88800  0.06230
47.69000  0.87600  0.06750
49.59000  0.86200  0.07370
51.66000  0.84600  0.08120
53.91000  0.82800  0.09030
56.36000  0.80800  0.10100
59.04000  0.78500  0.11500
61.99000  0.75800  0.13200
65.26000  0.72700  0.15400
68.88000  0.69100  0.18100
72.93000  0.65100  0.21600
77.49000  0.60300  0.26100
82.66000  0.54900  0.32100
88.56000  0.48500  0.40300
95.37000  0.41000  0.51900
103.30000  0.32700  0.72600
107.80000  0.36300  0.84700
112.70000  0.39200  0.94600
118.10000  0.42300  1.04000
124.00000  0.45900  1.14000
130.50000  0.49700  1.24000
137.80000  0.54300  1.35000
145.89999  0.59700  1.47000
155.00000  0.66000  1.60000
165.30000  0.73500  1.74000
177.10001  0.83200  1.89000
190.70000  0.95100  2.07000
206.60001  1.11000  2.28000
225.39999  1.35000  2.51000
248.00000  1.69000  2.76000
258.29999  1.86000  2.85000
269.50000  2.07000  2.93000
281.79999  2.30000  2.99000
295.20001  2.56000  3.04000
310.00000  2.87000  3.06000
326.29999  3.21000  3.00000
344.39999  3.55000  2.88000
354.29999  3.73000  2.79000
364.70001  3.90000  2.66000
387.50000  4.17000  2.38000
413.29999  4.38000  2.02000
442.79999  4.47000  1.64000
476.89999  4.49000  1.28000
496.00000  4.47000  1.12000
516.59998  4.46000  0.97000
563.59998  4.36000  0.69000
619.90002  4.23000  0.46100
652.59998  4.17000  0.36300
688.79999  4.09000  0.27100
